File Name:,C:\TAData\2018-11-22 09-12-Corrected-10.tad

[File Information]
File Name:,2018-11-22 09-12.tad
Sample Name:,Indium - Standard
Lot No:,010
Acquisition Date,18/11/22
Acquisition Time,09:12:11(-0500)
Detector:,DSC-60
Serial No:,C30454400666SA
Operator:,Thad
Atmosphere:,Air
Flow Rate:,0[ml/min]
Cell:,Aluminum
Sample Weight:,1.700[mg]
Molecular Weight:,114.82


[Program]
[Sampling Parameters]
Sampling Time [ sec ]:,2.0
Start Acquisition Setting:,Acquisition before measurement starts[ min ]:,1.0
Stop Acquisition Setting:,Acquisition after measurement stops[ min ]:,1.0


[Temp Program]
Temp Rate,Hold Temp,Hold Time
[C/min ],[  C   ],[  min  ]
2.00,180.0,2
-2.00,90.0,8
10.00,190.0,2
-10.00,20.0,0


[Analysis Result]
[DSC Peak]
Start
,140.12,C
End
,176.77,C
Peak
,157.48,C
Onset
,156.17,C
Endset
,158.42,C
Heat
,-28.69,J/g
Height
,-3.86,mW



[Data History]
Baseline Correction[Manual]-DSC:,18/11/22 11:55:48(-0500)
,



[Data]
Temp,DSC
C,mW
40.34,0.46
40.34,0.46
40.34,0.46
40.34,0.46
40.34,0.46
40.34,0.46
40.34,0.46
40.34,0.46
40.34,0.46
40.34,0.46
40.34,0.46
40.34,0.46
40.34,0.46
40.34,0.46
40.34,0.46
40.34,0.46
40.34,0.46
40.34,0.46
40.34,0.46
40.34,0.46
40.34,0.46
40.34,0.46
40.34,0.46
40.34,0.46
40.34,0.46
40.34,0.46
40.34,0.46
40.35,0.46
40.35,0.46
40.35,0.46
40.34,0.46
40.35,0.46
40.35,0.46
40.36,0.46
40.37,0.46
40.39,0.46
40.41,0.45
40.44,0.44
40.48,0.44
40.51,0.43
40.55,0.42
40.61,0.42
40.65,0.41
40.71,0.40
40.75,0.40
40.82,0.39
40.88,0.39
40.93,0.39
40.99,0.39
41.05,0.39
41.11,0.39
41.17,0.39
41.24,0.38
41.30,0.38
41.37,0.38
41.42,0.38
41.49,0.38
41.55,0.38
41.61,0.38
41.68,0.38
41.74,0.38
41.81,0.38
41.87,0.38
41.93,0.38
41.99,0.38
42.06,0.38
42.12,0.38
42.19,0.38
42.25,0.38
42.32,0.38
42.38,0.38
42.44,0.38
42.51,0.38
42.57,0.38
42.64,0.38
42.70,0.38
42.76,0.38
42.82,0.38
42.89,0.38
42.96,0.38
43.02,0.38
43.08,0.38
43.14,0.38
43.21,0.38
43.27,0.38
43.33,0.38
43.40,0.38
43.46,0.38
43.52,0.38
43.59,0.38
43.66,0.38
43.72,0.38
43.78,0.38
43.84,0.38
43.90,0.38
43.97,0.38
44.03,0.38
44.09,0.38
44.16,0.38
44.22,0.38
44.29,0.38
44.35,0.38
44.41,0.38
44.48,0.38
44.54,0.38
44.61,0.38
44.67,0.38
44.73,0.38
44.80,0.38
44.86,0.38
44.93,0.38
44.99,0.38
45.05,0.38
45.11,0.38
45.18,0.38
45.25,0.38
45.31,0.38
45.37,0.38
45.44,0.38
45.50,0.38
45.57,0.38
45.63,0.38
45.69,0.38
45.76,0.38
45.82,0.38
45.89,0.38
45.95,0.38
46.01,0.38
46.08,0.38
46.14,0.38
46.21,0.38
46.27,0.38
46.34,0.38
46.40,0.38
46.46,0.38
46.52,0.38
46.60,0.38
46.66,0.38
46.72,0.38
46.78,0.38
46.85,0.38
46.91,0.38
46.98,0.38
47.05,0.38
47.11,0.38
47.17,0.38
47.23,0.38
47.30,0.38
47.36,0.38
47.43,0.38
47.48,0.38
47.55,0.38
47.61,0.38
47.68,0.38
47.74,0.38
47.80,0.37
47.87,0.37
47.93,0.37
48.00,0.38
48.06,0.38
48.12,0.38
48.19,0.37
48.25,0.37
48.31,0.37
48.37,0.37
48.44,0.37
48.50,0.37
48.57,0.37
48.63,0.37
48.69,0.37
48.76,0.37
48.82,0.37
48.89,0.37
48.95,0.37
49.01,0.37
49.08,0.37
49.14,0.37
49.20,0.37
49.27,0.37
49.33,0.37
49.40,0.37
49.46,0.37
49.52,0.37
49.59,0.37
49.64,0.37
49.71,0.37
49.77,0.37
49.84,0.37
49.90,0.37
49.96,0.37
50.03,0.37
50.09,0.37
50.15,0.37
50.21,0.37
50.27,0.37
50.34,0.37
50.40,0.37
50.46,0.37
50.53,0.37
50.59,0.37
50.66,0.37
50.72,0.37
50.79,0.37
50.85,0.37
50.91,0.37
50.98,0.37
51.04,0.37
51.11,0.37
51.17,0.37
51.23,0.37
51.29,0.37
51.36,0.37
51.42,0.37
51.48,0.37
51.55,0.37
51.61,0.37
51.68,0.37
51.74,0.37
51.80,0.37
51.86,0.37
51.93,0.37
51.99,0.37
52.05,0.37
52.12,0.37
52.18,0.37
52.25,0.37
52.31,0.37
52.38,0.37
52.44,0.37
52.50,0.37
52.56,0.37
52.63,0.37
52.69,0.37
52.75,0.37
52.82,0.37
52.88,0.37
52.95,0.37
53.01,0.37
53.07,0.37
53.13,0.37
53.20,0.37
53.26,0.37
53.32,0.37
53.39,0.36
53.45,0.36
53.52,0.36
53.59,0.36
53.65,0.37
53.71,0.37
53.77,0.37
53.83,0.37
53.90,0.37
53.97,0.37
54.02,0.37
54.09,0.37
54.15,0.37
54.22,0.37
54.29,0.36
54.35,0.36
54.42,0.36
54.47,0.37
54.54,0.37
54.60,0.36
54.66,0.36
54.72,0.36
54.79,0.36
54.85,0.36
54.92,0.36
54.98,0.36
55.04,0.36
55.10,0.36
55.17,0.36
55.23,0.36
55.30,0.36
55.37,0.36
55.43,0.36
55.49,0.36
55.55,0.36
55.62,0.36
55.67,0.36
55.75,0.36
55.81,0.36
55.87,0.36
55.94,0.36
56.00,0.36
56.07,0.36
56.13,0.36
56.19,0.36
56.25,0.36
56.32,0.36
56.38,0.36
56.45,0.36
56.50,0.36
56.57,0.36
56.63,0.36
56.70,0.36
56.77,0.36
56.82,0.36
56.89,0.36
56.95,0.36
57.02,0.36
57.08,0.36
57.15,0.36
57.22,0.36
57.27,0.36
57.33,0.36
57.39,0.36
57.46,0.36
57.53,0.36
57.59,0.36
57.65,0.36
57.71,0.36
57.78,0.36
57.84,0.36
57.91,0.36
57.97,0.36
58.03,0.36
58.09,0.36
58.16,0.36
58.22,0.35
58.28,0.35
58.35,0.35
58.41,0.35
58.47,0.35
58.55,0.35
58.61,0.35
58.66,0.35
58.73,0.35
58.80,0.35
58.87,0.35
58.92,0.35
58.98,0.35
59.04,0.35
59.11,0.35
59.18,0.35
59.24,0.35
59.30,0.35
59.36,0.35
59.42,0.35
59.49,0.35
59.56,0.35
59.61,0.35
59.68,0.35
59.74,0.35
59.81,0.35
59.88,0.35
59.93,0.35
60.00,0.35
60.06,0.35
60.13,0.35
60.19,0.35
60.26,0.35
60.32,0.35
60.38,0.35
60.44,0.35
60.51,0.35
60.57,0.35
60.63,0.35
60.69,0.35
60.76,0.35
60.82,0.35
60.89,0.35
60.95,0.35
61.01,0.35
61.07,0.35
61.13,0.35
61.20,0.35
61.26,0.35
61.32,0.35
61.39,0.35
61.45,0.35
61.51,0.35
61.58,0.35
61.65,0.35
61.71,0.35
61.77,0.35
61.83,0.34
61.90,0.34
61.97,0.34
62.02,0.34
62.09,0.34
62.15,0.34
62.21,0.34
62.27,0.34
62.34,0.34
62.41,0.34
62.47,0.34
62.53,0.34
62.59,0.34
62.66,0.34
62.72,0.34
62.78,0.34
62.84,0.34
62.91,0.34
62.98,0.34
63.04,0.34
63.10,0.34
63.16,0.34
63.23,0.34
63.29,0.34
63.35,0.34
63.42,0.34
63.48,0.34
63.54,0.34
63.60,0.34
63.67,0.34
63.73,0.34
63.80,0.34
63.86,0.34
63.92,0.34
63.98,0.34
64.05,0.34
64.11,0.34
64.18,0.34
64.24,0.34
64.30,0.34
64.36,0.34
64.43,0.34
64.49,0.34
64.55,0.34
64.62,0.34
64.68,0.34
64.74,0.34
64.81,0.34
64.87,0.34
64.93,0.34
65.00,0.34
65.06,0.34
65.12,0.34
65.19,0.34
65.25,0.34
65.32,0.34
65.38,0.34
65.45,0.34
65.51,0.34
65.57,0.34
65.63,0.34
65.69,0.34
65.76,0.34
65.82,0.34
65.88,0.34
65.94,0.34
66.01,0.34
66.07,0.34
66.13,0.34
66.20,0.34
66.26,0.34
66.33,0.34
66.39,0.34
66.45,0.34
66.51,0.34
66.58,0.34
66.64,0.33
66.70,0.33
66.77,0.33
66.83,0.33
66.89,0.33
66.96,0.33
67.02,0.33
67.08,0.33
67.15,0.33
67.21,0.33
67.27,0.33
67.34,0.33
67.41,0.33
67.47,0.33
67.53,0.33
67.60,0.33
67.66,0.33
67.72,0.33
67.78,0.33
67.85,0.33
67.91,0.33
67.97,0.33
68.04,0.33
68.10,0.33
68.16,0.33
68.23,0.33
68.30,0.33
68.35,0.33
68.42,0.33
68.48,0.33
68.54,0.33
68.60,0.33
68.67,0.33
68.73,0.33
68.80,0.33
68.86,0.33
68.92,0.33
68.99,0.33
69.05,0.33
69.12,0.33
69.18,0.33
69.24,0.33
69.30,0.33
69.37,0.33
69.43,0.33
69.49,0.33
69.56,0.33
69.62,0.33
69.68,0.33
69.74,0.32
69.81,0.32
69.88,0.32
69.94,0.32
70.01,0.32
70.07,0.32
70.13,0.32
70.19,0.32
70.26,0.32
70.32,0.32
70.39,0.32
70.44,0.32
70.51,0.32
70.56,0.32
70.63,0.32
70.69,0.32
70.76,0.32
70.82,0.32
70.88,0.32
70.95,0.32
71.01,0.32
71.08,0.32
71.14,0.32
71.20,0.32
71.26,0.32
71.33,0.32
71.39,0.32
71.46,0.32
71.52,0.32
71.58,0.32
71.65,0.32
71.71,0.32
71.77,0.32
71.83,0.32
71.90,0.32
71.96,0.32
72.03,0.32
72.10,0.32
72.15,0.32
72.21,0.32
72.28,0.32
72.35,0.32
72.40,0.32
72.47,0.32
72.53,0.32
72.60,0.31
72.66,0.31
72.72,0.31
72.79,0.31
72.85,0.31
72.92,0.31
72.98,0.31
73.04,0.31
73.11,0.31
73.17,0.31
73.24,0.31
73.30,0.31
73.36,0.31
73.42,0.31
73.49,0.32
73.55,0.32
73.61,0.32
73.68,0.32
73.74,0.32
73.80,0.31
73.86,0.31
73.93,0.31
74.00,0.31
74.06,0.31
74.12,0.31
74.18,0.31
74.24,0.31
74.31,0.31
74.37,0.31
74.43,0.31
74.50,0.31
74.57,0.31
74.63,0.31
74.69,0.31
74.75,0.31
74.81,0.31
74.88,0.31
74.94,0.31
75.01,0.31
75.07,0.31
75.13,0.31
75.19,0.31
75.26,0.31
75.32,0.31
75.38,0.31
75.45,0.31
75.51,0.31
75.58,0.31
75.63,0.31
75.70,0.31
75.76,0.31
75.83,0.31
75.89,0.31
75.96,0.31
76.02,0.31
76.08,0.31
76.14,0.31
76.22,0.31
76.28,0.31
76.34,0.31
76.40,0.31
76.47,0.31
76.53,0.31
76.59,0.31
76.65,0.31
76.72,0.31
76.78,0.31
76.85,0.31
76.90,0.31
76.96,0.31
77.03,0.31
77.09,0.31
77.15,0.31
77.22,0.31
77.28,0.31
77.35,0.31
77.41,0.31
77.47,0.31
77.54,0.31
77.60,0.31
77.66,0.31
77.72,0.31
77.79,0.31
77.85,0.31
77.91,0.31
77.98,0.31
78.04,0.31
78.11,0.31
78.17,0.31
78.24,0.31
78.30,0.31
78.36,0.31
78.43,0.31
78.49,0.31
78.55,0.31
78.61,0.31
78.68,0.31
78.75,0.31
78.81,0.31
78.86,0.30
78.94,0.30
79.00,0.30
79.06,0.30
79.12,0.30
79.18,0.30
79.24,0.30
79.31,0.30
79.37,0.30
79.43,0.30
79.50,0.30
79.56,0.30
79.63,0.30
79.68,0.30
79.75,0.30
79.81,0.30
79.88,0.30
79.94,0.30
80.01,0.30
80.07,0.30
80.14,0.30
80.20,0.30
80.26,0.30
80.32,0.30
80.39,0.30
80.45,0.30
80.51,0.30
80.58,0.30
80.64,0.30
80.70,0.30
80.77,0.30
80.83,0.30
80.89,0.30
80.95,0.30
81.02,0.30
81.08,0.30
81.14,0.30
81.21,0.30
81.27,0.30
81.34,0.30
81.40,0.30
81.46,0.30
81.53,0.30
81.59,0.30
81.65,0.30
81.71,0.30
81.78,0.30
81.84,0.30
81.91,0.30
81.97,0.30
82.04,0.30
82.09,0.30
82.16,0.30
82.22,0.30
82.29,0.30
82.35,0.30
82.42,0.30
82.48,0.30
82.54,0.30
82.61,0.30
82.67,0.30
82.73,0.30
82.80,0.30
82.86,0.30
82.92,0.30
83.00,0.30
83.05,0.29
83.11,0.29
83.18,0.29
83.24,0.29
83.31,0.29
83.36,0.29
83.43,0.30
83.49,0.30
83.56,0.30
83.62,0.30
83.68,0.30
83.74,0.30
83.80,0.30
83.87,0.30
83.93,0.30
84.00,0.30
84.06,0.29
84.13,0.29
84.19,0.29
84.25,0.29
84.32,0.29
84.38,0.29
84.45,0.29
84.50,0.29
84.57,0.29
84.63,0.29
84.70,0.29
84.75,0.29
84.82,0.29
84.88,0.29
84.95,0.29
85.01,0.29
85.07,0.29
85.14,0.29
85.19,0.29
85.26,0.29
85.32,0.29
85.39,0.29
85.45,0.29
85.51,0.29
85.57,0.29
85.63,0.29
85.70,0.29
85.76,0.29
85.83,0.29
85.89,0.29
85.95,0.29
86.02,0.29
86.08,0.29
86.15,0.29
86.21,0.29
86.27,0.29
86.33,0.29
86.40,0.29
86.46,0.29
86.52,0.29
86.58,0.29
86.64,0.29
86.70,0.29
86.77,0.29
86.84,0.29
86.89,0.29
86.97,0.29
87.03,0.29
87.10,0.29
87.16,0.29
87.22,0.29
87.28,0.29
87.35,0.29
87.41,0.29
87.47,0.29
87.53,0.29
87.60,0.29
87.66,0.29
87.73,0.29
87.79,0.29
87.85,0.29
87.91,0.29
87.97,0.29
88.04,0.29
88.10,0.29
88.16,0.29
88.24,0.29
88.29,0.29
88.35,0.29
88.42,0.29
88.48,0.29
88.55,0.29
88.61,0.29
88.67,0.29
88.74,0.29
88.80,0.29
88.86,0.29
88.92,0.29
88.99,0.29
89.05,0.29
89.11,0.29
89.18,0.29
89.24,0.28
89.30,0.29
89.37,0.29
89.43,0.29
89.50,0.29
89.56,0.29
89.63,0.29
89.69,0.29
89.75,0.29
89.81,0.29
89.87,0.29
89.93,0.29
90.00,0.29
90.07,0.29
90.13,0.29
90.19,0.28
90.25,0.28
90.32,0.29
90.38,0.29
90.45,0.28
90.50,0.28
90.58,0.28
90.64,0.28
90.70,0.28
90.76,0.28
90.82,0.28
90.89,0.28
90.95,0.28
91.02,0.28
91.08,0.28
91.14,0.28
91.21,0.28
91.27,0.28
91.33,0.28
91.40,0.28
91.45,0.28
91.52,0.28
91.59,0.28
91.66,0.28
91.72,0.28
91.78,0.28
91.85,0.28
91.90,0.28
91.97,0.28
92.03,0.28
92.09,0.28
92.15,0.28
92.21,0.28
92.28,0.28
92.35,0.28
92.42,0.28
92.48,0.28
92.54,0.28
92.60,0.28
92.66,0.28
92.73,0.28
92.79,0.28
92.85,0.28
92.91,0.28
92.98,0.28
93.04,0.28
93.11,0.29
93.17,0.29
93.24,0.28
93.30,0.28
93.36,0.28
93.42,0.28
93.48,0.29
93.54,0.29
93.61,0.29
93.67,0.28
93.73,0.28
93.80,0.28
93.86,0.28
93.93,0.28
93.99,0.28
94.05,0.28
94.11,0.28
94.18,0.28
94.24,0.28
94.31,0.28
94.37,0.28
94.43,0.28
94.49,0.28
94.56,0.28
94.62,0.28
94.68,0.28
94.74,0.29
94.81,0.28
94.87,0.28
94.93,0.28
95.00,0.28
95.06,0.28
95.13,0.28
95.19,0.28
95.25,0.28
95.32,0.28
95.38,0.28
95.44,0.28
95.51,0.28
95.57,0.28
95.63,0.28
95.69,0.28
95.76,0.28
95.82,0.28
95.88,0.28
95.94,0.28
96.00,0.28
96.07,0.28
96.13,0.28
96.20,0.28
96.26,0.28
96.32,0.28
96.39,0.28
96.45,0.28
96.51,0.28
96.57,0.28
96.64,0.28
96.70,0.28
96.77,0.28
96.83,0.28
96.90,0.28
96.95,0.28
97.02,0.28
97.08,0.28
97.14,0.28
97.20,0.28
97.27,0.28
97.33,0.28
97.39,0.28
97.46,0.28
97.52,0.28
97.58,0.28
97.65,0.28
97.71,0.28
97.77,0.28
97.83,0.28
97.89,0.28
97.96,0.28
98.02,0.28
98.09,0.28
98.16,0.28
98.22,0.28
98.28,0.28
98.34,0.28
98.40,0.28
98.47,0.28
98.53,0.28
98.59,0.28
98.66,0.28
98.72,0.28
98.78,0.28
98.85,0.28
98.90,0.28
98.97,0.28
99.03,0.28
99.10,0.28
99.16,0.28
99.23,0.28
99.29,0.28
99.35,0.28
99.42,0.28
99.48,0.28
99.54,0.28
99.61,0.28
99.67,0.28
99.73,0.28
99.79,0.28
99.86,0.28
99.92,0.28
99.99,0.28
100.05,0.28
100.12,0.28
100.17,0.28
100.24,0.28
100.30,0.28
100.37,0.28
100.43,0.28
100.49,0.28
100.55,0.28
100.62,0.28
100.69,0.28
100.74,0.28
100.81,0.28
100.87,0.28
100.93,0.28
101.00,0.28
101.06,0.28
101.13,0.28
101.19,0.28
101.25,0.28
101.31,0.28
101.38,0.28
101.44,0.28
101.51,0.28
101.57,0.28
101.63,0.28
101.69,0.28
101.76,0.28
101.83,0.28
101.88,0.28
101.95,0.28
102.01,0.28
102.07,0.28
102.14,0.28
102.20,0.28
102.26,0.28
102.32,0.28
102.39,0.28
102.46,0.28
102.52,0.28
102.58,0.28
102.64,0.28
102.70,0.28
102.77,0.28
102.83,0.28
102.90,0.28
102.96,0.28
103.03,0.28
103.08,0.28
103.14,0.28
103.21,0.28
103.27,0.28
103.34,0.28
103.39,0.28
103.46,0.28
103.52,0.28
103.59,0.28
103.65,0.28
103.72,0.28
103.78,0.28
103.84,0.28
103.90,0.28
103.96,0.28
104.03,0.28
104.09,0.28
104.15,0.28
104.21,0.28
104.28,0.28
104.34,0.28
104.40,0.28
104.47,0.28
104.53,0.28
104.59,0.28
104.65,0.28
104.71,0.28
104.78,0.28
104.85,0.28
104.91,0.28
104.97,0.28
105.04,0.28
105.10,0.28
105.16,0.28
105.22,0.28
105.28,0.28
105.35,0.28
105.42,0.28
105.48,0.28
105.54,0.28
105.60,0.28
105.66,0.28
105.73,0.28
105.79,0.28
105.85,0.28
105.91,0.28
105.98,0.28
106.04,0.28
106.10,0.28
106.16,0.28
106.23,0.28
106.29,0.28
106.35,0.28
106.42,0.28
106.48,0.28
106.54,0.28
106.60,0.28
106.67,0.28
106.73,0.28
106.79,0.28
106.86,0.28
106.92,0.28
106.98,0.28
107.05,0.28
107.11,0.28
107.17,0.28
107.24,0.28
107.31,0.28
107.37,0.28
107.43,0.28
107.49,0.28
107.55,0.28
107.61,0.28
107.67,0.28
107.73,0.28
107.80,0.28
107.87,0.28
107.93,0.28
107.99,0.28
108.05,0.28
108.11,0.28
108.18,0.28
108.24,0.28
108.30,0.28
108.37,0.28
108.43,0.28
108.50,0.28
108.56,0.28
108.62,0.28
108.68,0.28
108.75,0.28
108.81,0.28
108.87,0.28
108.94,0.28
109.00,0.28
109.06,0.28
109.12,0.28
109.19,0.28
109.26,0.28
109.32,0.28
109.38,0.28
109.44,0.28
109.51,0.28
109.57,0.28
109.63,0.28
109.69,0.28
109.76,0.28
109.82,0.28
109.89,0.28
109.95,0.28
110.02,0.28
110.08,0.28
110.14,0.28
110.20,0.28
110.26,0.28
110.33,0.28
110.39,0.28
110.46,0.28
110.52,0.28
110.58,0.28
110.64,0.28
110.71,0.28
110.77,0.28
110.83,0.28
110.89,0.28
110.95,0.28
111.01,0.28
111.08,0.28
111.14,0.28
111.21,0.28
111.27,0.28
111.33,0.28
111.40,0.28
111.47,0.28
111.53,0.28
111.59,0.28
111.65,0.28
111.72,0.28
111.78,0.28
111.84,0.28
111.90,0.28
111.97,0.28
112.03,0.28
112.09,0.28
112.16,0.28
112.22,0.28
112.28,0.28
112.34,0.28
112.41,0.28
112.47,0.28
112.54,0.28
112.60,0.28
112.66,0.28
112.72,0.28
112.78,0.28
112.85,0.28
112.92,0.28
112.98,0.28
113.04,0.28
113.11,0.28
113.16,0.28
113.23,0.28
113.29,0.28
113.35,0.28
113.41,0.28
113.48,0.28
113.54,0.28
113.60,0.28
113.67,0.28
113.73,0.28
113.79,0.28
113.86,0.28
113.92,0.28
113.98,0.28
114.04,0.28
114.11,0.28
114.17,0.28
114.23,0.28
114.29,0.28
114.36,0.28
114.42,0.28
114.48,0.28
114.54,0.28
114.61,0.28
114.67,0.28
114.73,0.28
114.80,0.28
114.86,0.28
114.92,0.28
114.99,0.28
115.05,0.28
115.10,0.28
115.18,0.28
115.24,0.28
115.30,0.28
115.36,0.28
115.42,0.28
115.49,0.28
115.55,0.28
115.61,0.28
115.68,0.28
115.74,0.28
115.80,0.28
115.83,0.28
115.90,0.28
115.96,0.28
116.02,0.28
116.08,0.28
116.15,0.28
116.21,0.28
116.28,0.28
116.34,0.28
116.40,0.28
116.46,0.28
116.53,0.28
116.59,0.28
116.65,0.28
116.72,0.28
116.78,0.28
116.84,0.28
116.90,0.28
116.97,0.28
117.03,0.28
117.09,0.28
117.16,0.28
117.22,0.28
117.28,0.28
117.35,0.28
117.41,0.28
117.46,0.28
117.53,0.28
117.59,0.28
117.66,0.28
117.72,0.28
117.78,0.28
117.84,0.28
117.91,0.28
117.97,0.28
118.03,0.28
118.09,0.28
118.16,0.28
118.22,0.28
118.28,0.28
118.35,0.28
118.41,0.28
118.47,0.28
118.53,0.28
118.60,0.28
118.66,0.28
118.72,0.28
118.79,0.28
118.85,0.28
118.91,0.28
118.97,0.28
119.04,0.28
119.10,0.28
119.17,0.28
119.22,0.28
119.29,0.28
119.35,0.28
119.41,0.28
119.47,0.28
119.54,0.28
119.61,0.28
119.67,0.28
119.73,0.28
119.79,0.28
119.86,0.28
119.92,0.28
119.99,0.28
120.05,0.28
120.11,0.28
120.18,0.28
120.23,0.28
120.31,0.28
120.37,0.28
120.43,0.28
120.49,0.28
120.56,0.28
120.62,0.28
120.68,0.28
120.74,0.28
120.80,0.28
120.87,0.28
120.93,0.28
121.00,0.28
121.05,0.28
121.12,0.28
121.19,0.28
121.25,0.28
121.31,0.29
121.38,0.29
121.44,0.29
121.50,0.29
121.57,0.29
121.63,0.29
121.69,0.29
121.75,0.29
121.82,0.29
121.88,0.29
121.94,0.29
122.01,0.29
122.07,0.29
122.13,0.28
122.20,0.28
122.26,0.28
122.32,0.28
122.39,0.29
122.45,0.29
122.52,0.29
122.58,0.29
122.64,0.29
122.71,0.29
122.77,0.29
122.83,0.29
122.89,0.29
122.95,0.29
123.02,0.29
123.08,0.29
123.14,0.29
123.21,0.29
123.27,0.29
123.33,0.29
123.40,0.29
123.46,0.29
123.52,0.29
123.58,0.29
123.65,0.29
123.71,0.29
123.77,0.29
123.83,0.29
123.89,0.29
123.96,0.29
124.03,0.29
124.09,0.29
124.15,0.29
124.21,0.29
124.28,0.29
124.34,0.29
124.40,0.29
124.47,0.29
124.53,0.29
124.59,0.29
124.66,0.29
124.72,0.29
124.79,0.29
124.85,0.29
124.91,0.29
124.97,0.29
125.04,0.29
125.10,0.29
125.16,0.29
125.22,0.29
125.29,0.29
125.35,0.29
125.41,0.29
125.48,0.29
125.54,0.29
125.60,0.29
125.66,0.29
125.73,0.29
125.79,0.29
125.86,0.29
125.92,0.29
125.98,0.29
126.04,0.29
126.10,0.29
126.17,0.29
126.23,0.29
126.29,0.29
126.35,0.29
126.42,0.29
126.48,0.29
126.54,0.29
126.61,0.29
126.67,0.29
126.74,0.29
126.79,0.29
126.86,0.29
126.93,0.29
126.99,0.29
127.05,0.29
127.12,0.29
127.18,0.29
127.24,0.29
127.30,0.29
127.37,0.29
127.43,0.29
127.49,0.29
127.55,0.29
127.62,0.29
127.68,0.29
127.74,0.29
127.80,0.29
127.87,0.29
127.93,0.29
127.99,0.29
128.06,0.29
128.12,0.29
128.18,0.29
128.25,0.29
128.31,0.29
128.38,0.29
128.43,0.29
128.50,0.29
128.56,0.29
128.63,0.29
128.69,0.29
128.75,0.29
128.82,0.29
128.88,0.29
128.94,0.29
129.00,0.29
129.07,0.29
129.13,0.29
129.19,0.29
129.26,0.29
129.32,0.29
129.38,0.29
129.44,0.29
129.51,0.30
129.57,0.30
129.63,0.29
129.70,0.29
129.76,0.29
129.82,0.29
129.88,0.29
129.95,0.29
130.01,0.29
130.08,0.29
130.14,0.29
130.20,0.29
130.27,0.29
130.33,0.29
130.40,0.29
130.46,0.30
130.52,0.30
130.58,0.30
130.65,0.30
130.71,0.30
130.77,0.30
130.83,0.30
130.90,0.30
130.96,0.30
131.02,0.30
131.09,0.30
131.15,0.30
131.22,0.30
131.27,0.30
131.34,0.30
131.41,0.30
131.47,0.30
131.53,0.30
131.60,0.30
131.66,0.30
131.72,0.30
131.79,0.30
131.85,0.30
131.92,0.30
131.97,0.30
132.04,0.30
132.10,0.30
132.17,0.30
132.23,0.30
132.29,0.30
132.35,0.30
132.42,0.30
132.48,0.30
132.54,0.30
132.61,0.30
132.67,0.30
132.74,0.30
132.80,0.30
132.86,0.30
132.92,0.30
132.99,0.30
133.05,0.30
133.11,0.30
133.18,0.30
133.24,0.30
133.31,0.30
133.37,0.30
133.43,0.30
133.49,0.30
133.56,0.30
133.62,0.30
133.68,0.30
133.74,0.30
133.80,0.30
133.87,0.30
133.93,0.30
134.00,0.30
134.06,0.30
134.12,0.30
134.18,0.30
134.25,0.30
134.31,0.30
134.37,0.30
134.44,0.30
134.49,0.30
134.56,0.30
134.62,0.30
134.69,0.30
134.75,0.30
134.81,0.30
134.87,0.30
134.93,0.30
135.00,0.30
135.06,0.30
135.13,0.30
135.19,0.30
135.26,0.30
135.31,0.30
135.38,0.30
135.44,0.30
135.50,0.30
135.57,0.30
135.63,0.30
135.70,0.30
135.76,0.30
135.83,0.30
135.89,0.30
135.95,0.30
136.01,0.30
136.08,0.30
136.14,0.30
136.20,0.30
136.27,0.30
136.33,0.30
136.39,0.30
136.45,0.30
136.52,0.30
136.57,0.30
136.64,0.30
136.70,0.30
136.77,0.30
136.83,0.30
136.89,0.30
136.96,0.30
137.02,0.30
137.08,0.30
137.15,0.30
137.21,0.30
137.27,0.30
137.34,0.30
137.40,0.30
137.46,0.30
137.53,0.30
137.59,0.30
137.65,0.30
137.71,0.30
137.78,0.30
137.84,0.30
137.91,0.30
137.97,0.30
138.03,0.30
138.09,0.30
138.16,0.29
138.22,0.29
138.28,0.29
138.35,0.29
138.41,0.29
138.47,0.30
138.53,0.30
138.60,0.30
138.66,0.30
138.72,0.30
138.78,0.30
138.85,0.30
138.92,0.30
138.98,0.30
139.04,0.30
139.10,0.30
139.17,0.29
139.23,0.29
139.29,0.30
139.36,0.29
139.42,0.29
139.48,0.29
139.54,0.29
139.61,0.29
139.67,0.29
139.73,0.30
139.80,0.30
139.86,0.30
139.92,0.30
139.99,0.30
140.05,0.30
140.11,0.30
140.18,0.30
140.23,0.30
140.30,0.30
140.36,0.30
140.43,0.30
140.49,0.30
140.56,0.30
140.62,0.30
140.68,0.30
140.75,0.30
140.81,0.30
140.88,0.29
140.94,0.30
141.00,0.30
141.06,0.30
141.13,0.30
141.19,0.30
141.26,0.30
141.32,0.30
141.38,0.29
141.44,0.30
141.50,0.30
141.57,0.30
141.63,0.30
141.69,0.30
141.76,0.30
141.82,0.30
141.89,0.30
141.94,0.30
142.01,0.30
142.07,0.30
142.14,0.30
142.20,0.30
142.26,0.30
142.33,0.30
142.39,0.30
142.45,0.30
142.52,0.30
142.58,0.30
142.63,0.30
142.70,0.30
142.76,0.30
142.83,0.30
142.89,0.30
142.95,0.30
143.02,0.30
143.08,0.30
143.14,0.30
143.21,0.30
143.27,0.30
143.33,0.30
143.40,0.30
143.45,0.30
143.52,0.30
143.59,0.30
143.65,0.30
143.71,0.30
143.77,0.30
143.84,0.30
143.90,0.30
143.96,0.30
144.02,0.30
144.09,0.30
144.15,0.30
144.22,0.30
144.28,0.30
144.34,0.30
144.40,0.30
144.47,0.30
144.53,0.30
144.60,0.30
144.66,0.30
144.72,0.30
144.79,0.30
144.85,0.30
144.91,0.30
144.97,0.30
145.03,0.30
145.10,0.30
145.16,0.30
145.22,0.30
145.28,0.30
145.35,0.30
145.41,0.30
145.48,0.30
145.54,0.30
145.60,0.30
145.66,0.30
145.72,0.30
145.79,0.30
145.86,0.30
145.92,0.30
145.98,0.30
146.04,0.30
146.11,0.30
146.17,0.30
146.24,0.30
146.29,0.30
146.36,0.30
146.42,0.30
146.49,0.30
146.55,0.30
146.61,0.30
146.67,0.30
146.74,0.30
146.80,0.30
146.86,0.30
146.93,0.30
146.99,0.30
147.06,0.30
147.12,0.30
147.18,0.30
147.24,0.30
147.31,0.30
147.37,0.30
147.43,0.30
147.49,0.30
147.56,0.30
147.62,0.30
147.68,0.30
147.75,0.30
147.81,0.30
147.87,0.30
147.94,0.29
148.00,0.29
148.06,0.30
148.12,0.29
148.18,0.29
148.25,0.29
148.32,0.29
148.38,0.30
148.45,0.30
148.51,0.30
148.57,0.30
148.63,0.30
148.69,0.30
148.75,0.30
148.82,0.30
148.88,0.30
148.95,0.30
149.01,0.30
149.07,0.30
149.14,0.30
149.20,0.30
149.26,0.30
149.33,0.30
149.39,0.30
149.45,0.30
149.52,0.30
149.59,0.30
149.65,0.30
149.71,0.30
149.76,0.30
149.83,0.30
149.89,0.30
149.96,0.30
150.02,0.30
150.08,0.30
150.14,0.30
150.21,0.30
150.28,0.30
150.33,0.30
150.40,0.29
150.46,0.29
150.53,0.29
150.59,0.29
150.65,0.29
150.72,0.30
150.78,0.30
150.85,0.30
150.91,0.30
150.97,0.30
151.03,0.29
151.10,0.29
151.16,0.29
151.23,0.29
151.29,0.29
151.36,0.30
151.42,0.30
151.49,0.30
151.55,0.30
151.61,0.30
151.67,0.30
151.73,0.30
151.80,0.30
151.86,0.30
151.93,0.30
151.99,0.30
152.05,0.30
152.12,0.30
152.18,0.30
152.24,0.30
152.31,0.30
152.37,0.30
152.43,0.30
152.50,0.30
152.56,0.30
152.63,0.30
152.69,0.30
152.75,0.30
152.81,0.30
152.87,0.30
152.94,0.30
153.00,0.30
153.07,0.30
153.13,0.30
153.19,0.30
153.25,0.30
153.32,0.30
153.38,0.30
153.44,0.30
153.51,0.30
153.57,0.30
153.64,0.30
153.69,0.30
153.76,0.30
153.82,0.30
153.89,0.30
153.95,0.30
154.02,0.30
154.08,0.30
154.14,0.30
154.21,0.30
154.27,0.30
154.33,0.30
154.40,0.30
154.46,0.30
154.53,0.30
154.59,0.30
154.65,0.30
154.72,0.30
154.78,0.30
154.84,0.30
154.91,0.30
154.97,0.30
155.03,0.30
155.09,0.30
155.16,0.30
155.22,0.30
155.29,0.29
155.35,0.29
155.41,0.29
155.47,0.27
155.52,0.21
155.58,0.08
155.62,-0.12
155.67,-0.36
155.71,-0.62
155.76,-0.89
155.80,-1.16
155.85,-1.42
155.90,-1.65
155.96,-1.82
156.01,-1.95
156.08,-2.04
156.18,-1.94
156.27,-1.57
156.37,-1.07
156.45,-0.64
156.52,-0.34
156.60,-0.14
156.67,0.00
156.74,0.10
156.80,0.16
156.87,0.21
156.93,0.23
157.00,0.25
157.06,0.27
157.12,0.28
157.19,0.28
157.25,0.29
157.31,0.29
157.38,0.29
157.44,0.29
157.50,0.29
157.57,0.30
157.63,0.30
157.70,0.30
157.76,0.30
157.82,0.30
157.89,0.30
157.95,0.30
158.02,0.30
158.08,0.30
158.14,0.30
158.20,0.30
158.27,0.30
158.33,0.30
158.40,0.30
158.46,0.30
158.52,0.30
158.59,0.30
158.65,0.30
158.72,0.30
158.78,0.30
158.84,0.30
158.90,0.30
158.97,0.30
159.03,0.30
159.10,0.30
159.16,0.30
159.23,0.30
159.29,0.30
159.35,0.30
159.41,0.30
159.48,0.30
159.54,0.30
159.60,0.30
159.67,0.30
159.73,0.30
159.79,0.30
159.86,0.30
159.92,0.30
159.98,0.30
160.04,0.30
160.11,0.30
160.18,0.30
160.24,0.30
160.30,0.30
160.36,0.30
160.43,0.30
160.49,0.30
160.56,0.30
160.62,0.30
160.68,0.30
160.75,0.30
160.81,0.30
160.88,0.30
160.94,0.30
161.00,0.30
161.06,0.30
161.13,0.30
161.19,0.30
161.26,0.30
161.32,0.30
161.39,0.30
161.45,0.30
161.51,0.30
161.57,0.30
161.64,0.30
161.71,0.30
161.77,0.30
161.83,0.30
161.89,0.30
161.96,0.30
162.02,0.30
162.08,0.30
162.15,0.30
162.21,0.30
162.27,0.30
162.34,0.30
162.40,0.30
162.46,0.30
162.53,0.30
162.59,0.30
162.66,0.30
162.72,0.30
162.79,0.30
162.85,0.30
162.91,0.30
162.98,0.30
163.04,0.30
163.11,0.30
163.17,0.30
163.23,0.30
163.29,0.30
163.36,0.30
163.42,0.30
163.49,0.30
163.55,0.30
163.61,0.30
163.68,0.30
163.74,0.30
163.81,0.30
163.87,0.30
163.93,0.30
164.00,0.30
164.06,0.30
164.12,0.30
164.18,0.30
164.25,0.30
164.31,0.30
164.38,0.30
164.44,0.30
164.51,0.30
164.57,0.30
164.64,0.30
164.70,0.30
164.76,0.30
164.83,0.30
164.89,0.30
164.96,0.30
165.02,0.30
165.08,0.30
165.14,0.30
165.21,0.30
165.27,0.30
165.33,0.30
165.39,0.30
165.46,0.30
165.53,0.30
165.59,0.30
165.66,0.30
165.72,0.30
165.79,0.30
165.85,0.30
165.91,0.30
165.98,0.30
166.04,0.30
166.11,0.30
166.16,0.30
166.23,0.30
166.29,0.30
166.36,0.30
166.42,0.30
166.49,0.30
166.55,0.30
166.61,0.30
166.68,0.30
166.74,0.30
166.80,0.30
166.87,0.30
166.93,0.30
167.00,0.30
167.06,0.30
167.12,0.30
167.19,0.30
167.24,0.30
167.31,0.30
167.37,0.30
167.43,0.30
167.50,0.30
167.56,0.30
167.63,0.30
167.69,0.30
167.76,0.30
167.82,0.30
167.88,0.30
167.95,0.30
168.01,0.30
168.08,0.30
168.14,0.30
168.20,0.30
168.26,0.30
168.33,0.30
168.39,0.30
168.46,0.30
168.51,0.30
168.58,0.30
168.65,0.30
168.71,0.30
168.78,0.30
168.84,0.30
168.91,0.30
168.97,0.30
169.03,0.30
169.10,0.30
169.16,0.30
169.22,0.30
169.29,0.30
169.35,0.30
169.41,0.30
169.48,0.30
169.54,0.30
169.61,0.30
169.67,0.30
169.73,0.30
169.79,0.30
169.86,0.30
169.93,0.30
169.98,0.30
170.05,0.30
170.11,0.30
170.18,0.30
170.24,0.30
170.31,0.30
170.37,0.30
170.43,0.30
170.50,0.30
170.56,0.30
170.62,0.30
170.68,0.30
170.75,0.30
170.81,0.30
170.88,0.30
170.94,0.30
171.01,0.30
171.07,0.30
171.14,0.30
171.20,0.30
171.26,0.30
171.33,0.30
171.40,0.30
171.46,0.30
171.52,0.30
171.59,0.30
171.65,0.30
171.71,0.30
171.76,0.30
171.80,0.31
171.84,0.32
171.87,0.33
171.90,0.33
171.92,0.34
171.94,0.35
171.95,0.35
171.97,0.36
171.97,0.36
171.98,0.37
171.99,0.37
171.99,0.37
172.00,0.37
172.00,0.38
172.00,0.38
172.00,0.38
172.01,0.38
172.01,0.38
172.01,0.38
172.01,0.38
172.01,0.38
172.02,0.38
172.02,0.38
172.02,0.38
172.01,0.38
172.02,0.38
172.02,0.38
172.02,0.38
172.02,0.38
172.02,0.38
172.02,0.38
172.02,0.38
172.02,0.38
172.02,0.38
172.03,0.38
172.02,0.38
172.03,0.38
172.02,0.38
172.02,0.38
172.02,0.38
172.03,0.38
172.03,0.38
172.02,0.38
172.03,0.38
172.02,0.38
172.02,0.38
172.02,0.38
172.02,0.38
172.03,0.37
172.02,0.37
172.02,0.37
172.02,0.37
172.02,0.37
172.02,0.37
172.03,0.37
172.02,0.37
172.03,0.37
172.03,0.37
172.02,0.37
172.01,0.38
171.99,0.38
171.97,0.39
171.93,0.40
171.90,0.41
171.85,0.41
171.81,0.42
171.76,0.43
171.71,0.43
171.65,0.44
171.59,0.44
171.54,0.45
171.48,0.45
171.42,0.45
171.36,0.45
171.30,0.45
171.23,0.45
171.17,0.45
171.11,0.45
171.05,0.45
170.99,0.45
170.93,0.45
170.86,0.45
170.80,0.45
170.73,0.45
170.67,0.45
170.61,0.45
170.54,0.45
170.48,0.45
170.42,0.45
170.35,0.45
170.29,0.45
170.23,0.45
170.17,0.45
170.10,0.45
170.04,0.45
169.97,0.45
169.91,0.45
169.84,0.45
169.79,0.44
169.72,0.44
169.66,0.44
169.59,0.44
169.53,0.45
169.47,0.45
169.40,0.45
169.34,0.45
169.28,0.45
169.22,0.45
169.15,0.45
169.08,0.45
169.03,0.45
168.96,0.45
168.90,0.45
168.83,0.44
168.77,0.44
168.71,0.44
168.64,0.44
168.58,0.44
168.52,0.44
168.45,0.44
168.39,0.44
168.33,0.44
168.26,0.44
168.20,0.44
168.13,0.44
168.07,0.44
168.01,0.44
167.94,0.44
167.88,0.44
167.82,0.44
167.76,0.44
167.69,0.44
167.63,0.44
167.56,0.44
167.50,0.44
167.43,0.44
167.37,0.44
167.31,0.44
167.24,0.44
167.18,0.44
167.12,0.44
167.05,0.44
166.99,0.44
166.93,0.44
166.86,0.44
166.80,0.44
166.74,0.44
166.68,0.44
166.61,0.44
166.55,0.44
166.49,0.44
166.42,0.44
166.36,0.44
166.29,0.44
166.23,0.44
166.17,0.44
166.11,0.44
166.04,0.44
165.97,0.44
165.91,0.44
165.85,0.44
165.79,0.44
165.72,0.44
165.66,0.44
165.59,0.44
165.53,0.44
165.47,0.44
165.41,0.44
165.34,0.44
165.28,0.44
165.22,0.44
165.15,0.44
165.09,0.44
165.02,0.44
164.96,0.44
164.89,0.44
164.83,0.44
164.77,0.44
164.71,0.44
164.64,0.44
164.58,0.44
164.52,0.44
164.45,0.44
164.39,0.44
164.32,0.44
164.27,0.44
164.20,0.44
164.14,0.44
164.07,0.44
164.01,0.44
163.95,0.44
163.88,0.44
163.82,0.44
163.75,0.44
163.69,0.44
163.63,0.44
163.56,0.44
163.50,0.44
163.44,0.44
163.37,0.44
163.31,0.44
163.25,0.44
163.18,0.44
163.12,0.44
163.05,0.44
162.99,0.44
162.93,0.44
162.87,0.44
162.80,0.44
162.74,0.44
162.68,0.44
162.61,0.44
162.55,0.44
162.49,0.44
162.42,0.44
162.36,0.44
162.30,0.44
162.23,0.44
162.17,0.44
162.10,0.44
162.04,0.44
161.98,0.44
161.91,0.44
161.85,0.44
161.79,0.44
161.73,0.44
161.66,0.44
161.60,0.44
161.53,0.44
161.47,0.44
161.41,0.44
161.34,0.44
161.28,0.44
161.22,0.44
161.15,0.44
161.09,0.44
161.03,0.43
160.96,0.44
160.90,0.44
160.84,0.44
160.77,0.44
160.71,0.44
160.64,0.44
160.58,0.44
160.51,0.44
160.45,0.44
160.39,0.44
160.33,0.44
160.27,0.44
160.20,0.44
160.14,0.44
160.08,0.44
160.01,0.44
159.94,0.44
159.88,0.44
159.82,0.44
159.76,0.43
159.69,0.43
159.63,0.43
159.57,0.43
159.51,0.43
159.44,0.43
159.38,0.43
159.32,0.43
159.25,0.43
159.19,0.43
159.13,0.43
159.06,0.43
159.00,0.43
158.93,0.43
158.87,0.43
158.81,0.43
158.75,0.43
158.68,0.43
158.62,0.43
158.56,0.43
158.50,0.43
158.43,0.43
158.37,0.43
158.31,0.43
158.24,0.43
158.18,0.43
158.11,0.43
158.05,0.43
157.98,0.43
157.93,0.43
157.86,0.43
157.80,0.43
157.74,0.43
157.67,0.43
157.61,0.43
157.54,0.43
157.48,0.43
157.41,0.43
157.35,0.43
157.29,0.43
157.22,0.43
157.16,0.43
157.10,0.43
157.04,0.43
156.97,0.43
156.90,0.43
156.84,0.43
156.78,0.43
156.72,0.43
156.65,0.43
156.59,0.43
156.52,0.43
156.46,0.43
156.40,0.43
156.33,0.43
156.27,0.43
156.21,0.43
156.15,0.43
156.09,0.43
156.01,0.43
155.96,0.43
155.89,0.43
155.84,0.43
155.77,0.43
155.70,0.43
155.64,0.43
155.58,0.43
155.51,0.43
155.45,0.43
155.38,0.43
155.32,0.43
155.26,0.43
155.19,0.43
155.13,0.43
155.07,0.43
155.01,0.43
154.94,0.43
154.88,0.43
154.82,0.43
154.75,0.43
154.69,0.43
154.62,0.43
154.56,0.43
154.50,0.43
154.44,0.43
154.38,0.43
154.31,0.43
154.25,0.43
154.18,0.43
154.12,0.43
154.05,0.43
153.99,0.43
153.93,0.43
153.86,0.43
153.80,0.43
153.76,0.47
153.89,1.23
153.97,3.10
153.87,4.88
153.72,5.02
153.59,3.97
153.47,2.89
153.37,2.11
153.28,1.58
153.20,1.21
153.13,0.96
153.06,0.79
153.00,0.68
152.92,0.60
152.86,0.55
152.80,0.51
152.73,0.49
152.67,0.47
152.60,0.46
152.54,0.45
152.47,0.44
152.42,0.44
152.35,0.44
152.29,0.44
152.22,0.43
152.16,0.43
152.10,0.43
152.03,0.43
151.97,0.43
151.90,0.43
151.85,0.43
151.78,0.43
151.71,0.43
151.65,0.43
151.59,0.43
151.52,0.43
151.46,0.43
151.40,0.43
151.33,0.43
151.28,0.43
151.21,0.43
151.15,0.43
151.08,0.43
151.02,0.43
150.96,0.43
150.90,0.43
150.84,0.43
150.77,0.43
150.71,0.43
150.64,0.43
150.58,0.43
150.51,0.43
150.45,0.43
150.39,0.43
150.32,0.43
150.26,0.43
150.20,0.43
150.13,0.43
150.07,0.43
150.01,0.43
149.94,0.43
149.88,0.43
149.82,0.43
149.76,0.43
149.70,0.43
149.63,0.43
149.57,0.43
149.51,0.43
149.44,0.43
149.38,0.43
149.32,0.43
149.25,0.43
149.19,0.43
149.12,0.43
149.06,0.43
149.00,0.43
148.93,0.43
148.87,0.43
148.80,0.43
148.74,0.43
148.68,0.43
148.62,0.43
148.55,0.43
148.49,0.43
148.43,0.43
148.37,0.43
148.31,0.43
148.24,0.43
148.18,0.43
148.12,0.43
148.05,0.43
147.99,0.43
147.93,0.43
147.86,0.43
147.80,0.43
147.74,0.43
147.67,0.43
147.61,0.43
147.55,0.43
147.49,0.43
147.42,0.43
147.36,0.43
147.30,0.43
147.23,0.43
147.17,0.43
147.10,0.43
147.04,0.43
146.97,0.43
146.91,0.43
146.85,0.43
146.79,0.43
146.72,0.43
146.66,0.43
146.60,0.43
146.54,0.43
146.47,0.43
146.41,0.43
146.34,0.43
146.28,0.43
146.22,0.43
146.16,0.43
146.09,0.43
146.03,0.43
145.96,0.43
145.90,0.43
145.84,0.43
145.78,0.43
145.72,0.43
145.66,0.43
145.59,0.43
145.53,0.43
145.46,0.43
145.40,0.43
145.33,0.43
145.28,0.43
145.21,0.43
145.15,0.43
145.08,0.43
145.02,0.43
144.96,0.43
144.89,0.43
144.84,0.43
144.77,0.43
144.71,0.43
144.65,0.43
144.58,0.43
144.52,0.43
144.46,0.43
144.40,0.43
144.34,0.43
144.27,0.43
144.21,0.43
144.14,0.43
144.08,0.43
144.02,0.43
143.95,0.43
143.89,0.43
143.83,0.43
143.76,0.43
143.70,0.43
143.64,0.43
143.57,0.43
143.51,0.43
143.45,0.43
143.38,0.43
143.32,0.43
143.26,0.43
143.19,0.43
143.13,0.43
143.07,0.43
143.01,0.43
142.94,0.43
142.88,0.43
142.82,0.43
142.75,0.43
142.69,0.43
142.63,0.43
142.56,0.43
142.50,0.43
142.44,0.43
142.37,0.43
142.31,0.43
142.25,0.43
142.19,0.43
142.12,0.43
142.06,0.43
142.00,0.43
141.94,0.43
141.87,0.43
141.81,0.43
141.75,0.43
141.68,0.43
141.62,0.43
141.55,0.43
141.49,0.43
141.43,0.43
141.37,0.43
141.30,0.43
141.23,0.43
141.17,0.43
141.11,0.43
141.06,0.43
140.99,0.43
140.92,0.43
140.86,0.43
140.80,0.43
140.73,0.43
140.66,0.43
140.60,0.43
140.54,0.43
140.48,0.43
140.41,0.43
140.35,0.43
140.29,0.43
140.22,0.43
140.16,0.43
140.09,0.43
140.03,0.43
139.97,0.43
139.91,0.43
139.84,0.43
139.78,0.43
139.71,0.43
139.65,0.43
139.59,0.43
139.53,0.43
139.46,0.43
139.40,0.43
139.34,0.43
139.27,0.43
139.21,0.43
139.15,0.43
139.09,0.43
139.02,0.43
138.96,0.43
138.89,0.43
138.83,0.43
138.77,0.43
138.70,0.43
138.65,0.43
138.58,0.43
138.52,0.43
138.45,0.43
138.39,0.43
138.33,0.43
138.27,0.43
138.19,0.43
138.14,0.43
138.08,0.43
138.01,0.43
137.95,0.43
137.88,0.43
137.82,0.43
137.76,0.43
137.70,0.43
137.63,0.43
137.57,0.43
137.51,0.43
137.44,0.43
137.38,0.43
137.32,0.43
137.26,0.43
137.19,0.43
137.13,0.43
137.07,0.43
137.00,0.43
136.94,0.43
136.88,0.43
136.82,0.43
136.75,0.43
136.69,0.43
136.63,0.43
136.56,0.43
136.50,0.43
136.44,0.43
136.38,0.43
136.31,0.43
136.25,0.43
136.19,0.43
136.13,0.43
136.06,0.43
136.00,0.43
135.93,0.43
135.87,0.43
135.80,0.43
135.74,0.43
135.68,0.43
135.62,0.43
135.56,0.43
135.49,0.43
135.43,0.43
135.37,0.43
135.31,0.43
135.24,0.43
135.17,0.43
135.11,0.43
135.05,0.43
134.99,0.43
134.93,0.43
134.87,0.43
134.80,0.43
134.74,0.43
134.68,0.43
134.61,0.43
134.55,0.43
134.48,0.43
134.41,0.43
134.35,0.43
134.30,0.43
134.23,0.43
134.16,0.43
134.10,0.43
134.04,0.43
133.97,0.43
133.91,0.43
133.85,0.43
133.78,0.43
133.72,0.43
133.66,0.43
133.60,0.43
133.53,0.43
133.47,0.43
133.41,0.43
133.35,0.43
133.28,0.43
133.22,0.43
133.16,0.43
133.10,0.43
133.03,0.43
132.97,0.43
132.91,0.43
132.84,0.43
132.78,0.43
132.71,0.43
132.65,0.43
132.59,0.43
132.52,0.43
132.46,0.43
132.40,0.43
132.34,0.43
132.27,0.43
132.21,0.43
132.14,0.43
132.08,0.43
132.02,0.43
131.95,0.43
131.89,0.43
131.83,0.43
131.77,0.43
131.70,0.43
131.64,0.43
131.57,0.43
131.51,0.43
131.45,0.43
131.39,0.43
131.32,0.43
131.26,0.43
131.20,0.43
131.13,0.43
131.08,0.43
131.01,0.43
130.95,0.43
130.88,0.43
130.82,0.43
130.75,0.43
130.70,0.43
130.63,0.43
130.57,0.43
130.50,0.43
130.44,0.43
130.38,0.43
130.32,0.43
130.25,0.43
130.18,0.43
130.12,0.43
130.06,0.43
130.00,0.43
129.94,0.43
129.88,0.43
129.82,0.43
129.75,0.43
129.68,0.43
129.62,0.43
129.56,0.43
129.49,0.43
129.43,0.43
129.37,0.43
129.30,0.43
129.24,0.43
129.18,0.43
129.12,0.43
129.05,0.43
128.99,0.43
128.92,0.43
128.86,0.42
128.80,0.42
128.74,0.42
128.67,0.42
128.61,0.42
128.55,0.42
128.48,0.42
128.42,0.42
128.36,0.42
128.29,0.42
128.23,0.43
128.17,0.42
128.10,0.42
128.04,0.42
127.98,0.42
127.91,0.42
127.85,0.42
127.78,0.42
127.72,0.42
127.66,0.42
127.60,0.42
127.53,0.42
127.47,0.42
127.41,0.42
127.34,0.42
127.28,0.42
127.22,0.42
127.16,0.42
127.09,0.42
127.03,0.42
126.96,0.42
126.91,0.42
126.84,0.42
126.78,0.42
126.72,0.42
126.65,0.42
126.59,0.42
126.53,0.42
126.46,0.42
126.40,0.42
126.34,0.42
126.27,0.42
126.21,0.42
126.15,0.42
126.09,0.42
126.02,0.42
125.96,0.42
125.90,0.42
125.83,0.42
125.77,0.42
125.70,0.42
125.64,0.42
125.58,0.42
125.52,0.42
125.45,0.42
125.38,0.42
125.32,0.42
125.26,0.42
125.20,0.42
125.14,0.42
125.08,0.42
125.01,0.42
124.95,0.42
124.88,0.42
124.82,0.42
124.76,0.42
124.70,0.42
124.63,0.42
124.57,0.42
124.51,0.42
124.44,0.42
124.38,0.42
124.31,0.42
124.26,0.42
124.19,0.42
124.13,0.42
124.07,0.42
124.01,0.42
123.94,0.42
123.88,0.42
123.82,0.42
123.75,0.42
123.69,0.42
123.63,0.42
123.56,0.42
123.50,0.42
123.43,0.42
123.37,0.42
123.31,0.42
123.25,0.42
123.18,0.42
123.12,0.42
123.06,0.42
122.99,0.42
122.93,0.42
122.88,0.42
122.81,0.42
122.74,0.42
122.68,0.42
122.61,0.42
122.55,0.42
122.48,0.42
122.42,0.42
122.36,0.42
122.29,0.42
122.24,0.42
122.17,0.42
122.11,0.42
122.05,0.42
121.98,0.42
121.92,0.42
121.86,0.42
121.79,0.42
121.73,0.42
121.67,0.42
121.60,0.42
121.54,0.42
121.48,0.42
121.41,0.42
121.35,0.42
121.29,0.42
121.22,0.42
121.16,0.42
121.10,0.42
121.03,0.42
120.97,0.42
120.90,0.42
120.84,0.42
120.78,0.42
120.72,0.42
120.65,0.42
120.59,0.42
120.53,0.42
120.47,0.42
120.40,0.42
120.34,0.42
120.28,0.42
120.21,0.42
120.15,0.42
120.08,0.42
120.02,0.42
119.95,0.42
119.89,0.42
119.83,0.42
119.76,0.42
119.70,0.42
119.64,0.42
119.58,0.42
119.51,0.42
119.45,0.41
119.38,0.41
119.32,0.41
119.26,0.41
119.20,0.41
119.13,0.41
119.07,0.41
119.01,0.41
118.95,0.41
118.88,0.42
118.81,0.42
118.75,0.42
118.69,0.42
118.64,0.41
118.57,0.42
118.50,0.42
118.44,0.42
118.38,0.42
118.32,0.42
118.25,0.42
118.19,0.42
118.12,0.42
118.06,0.42
118.00,0.42
117.94,0.42
117.88,0.42
117.81,0.42
117.75,0.41
117.69,0.41
117.62,0.41
117.56,0.42
117.50,0.42
117.44,0.42
117.38,0.42
117.31,0.42
117.25,0.42
117.18,0.42
117.12,0.42
117.06,0.42
116.99,0.42
116.93,0.42
116.87,0.42
116.81,0.42
116.74,0.42
116.68,0.42
116.62,0.42
116.55,0.42
116.49,0.42
116.43,0.41
116.37,0.41
116.30,0.41
116.24,0.42
116.18,0.42
116.12,0.42
116.05,0.42
115.99,0.42
115.93,0.42
115.86,0.42
115.80,0.42
115.73,0.42
115.68,0.42
115.62,0.42
115.55,0.42
115.49,0.42
115.43,0.42
115.36,0.42
115.29,0.42
115.23,0.42
115.17,0.42
115.11,0.42
115.04,0.42
114.98,0.42
114.92,0.42
114.86,0.42
114.79,0.42
114.73,0.42
114.67,0.42
114.60,0.42
114.54,0.42
114.48,0.42
114.42,0.42
114.35,0.42
114.29,0.42
114.22,0.42
114.16,0.42
114.10,0.42
114.03,0.42
113.97,0.42
113.91,0.42
113.85,0.42
113.79,0.42
113.72,0.42
113.66,0.42
113.60,0.42
113.53,0.42
113.47,0.42
113.41,0.42
113.34,0.42
113.28,0.42
113.22,0.42
113.16,0.42
113.09,0.42
113.03,0.42
112.97,0.42
112.90,0.42
112.84,0.42
112.78,0.42
112.72,0.42
112.65,0.42
112.59,0.42
112.52,0.42
112.47,0.42
112.40,0.42
112.34,0.42
112.27,0.42
112.21,0.42
112.15,0.42
112.08,0.42
112.02,0.42
111.96,0.42
111.90,0.42
111.83,0.42
111.77,0.42
111.70,0.42
111.64,0.42
111.58,0.42
111.51,0.42
111.45,0.42
111.39,0.42
111.32,0.42
111.26,0.42
111.20,0.42
111.13,0.42
111.07,0.42
111.00,0.42
110.94,0.42
110.88,0.42
110.82,0.42
110.75,0.42
110.69,0.42
110.63,0.42
110.56,0.42
110.50,0.42
110.44,0.42
110.37,0.42
110.31,0.42
110.25,0.42
110.18,0.42
110.12,0.42
110.06,0.42
109.99,0.42
109.93,0.42
109.87,0.42
109.80,0.42
109.74,0.42
109.68,0.42
109.61,0.42
109.55,0.42
109.48,0.42
109.42,0.42
109.36,0.42
109.29,0.42
109.23,0.42
109.16,0.42
109.11,0.42
109.04,0.42
108.98,0.42
108.92,0.42
108.85,0.42
108.79,0.42
108.72,0.42
108.66,0.42
108.60,0.42
108.53,0.42
108.47,0.42
108.41,0.42
108.34,0.42
108.28,0.42
108.22,0.42
108.15,0.42
108.10,0.42
108.03,0.42
107.98,0.42
107.90,0.42
107.84,0.42
107.77,0.42
107.72,0.42
107.65,0.42
107.59,0.42
107.53,0.42
107.46,0.42
107.40,0.42
107.33,0.42
107.27,0.42
107.21,0.42
107.15,0.42
107.08,0.42
107.02,0.42
106.96,0.42
106.89,0.42
106.83,0.42
106.77,0.42
106.70,0.42
106.64,0.42
106.58,0.42
106.52,0.42
106.45,0.42
106.39,0.42
106.32,0.42
106.27,0.42
106.20,0.42
106.14,0.42
106.07,0.42
106.01,0.42
105.95,0.42
105.89,0.42
105.82,0.42
105.76,0.42
105.70,0.42
105.63,0.42
105.57,0.42
105.50,0.42
105.45,0.42
105.38,0.42
105.31,0.42
105.25,0.42
105.19,0.42
105.13,0.42
105.06,0.42
105.00,0.42
104.94,0.42
104.88,0.42
104.81,0.42
104.75,0.42
104.69,0.42
104.62,0.42
104.56,0.42
104.50,0.42
104.43,0.42
104.37,0.42
104.31,0.42
104.24,0.42
104.18,0.42
104.11,0.42
104.06,0.42
103.99,0.42
103.94,0.42
103.87,0.42
103.80,0.42
103.74,0.42
103.67,0.42
103.62,0.42
103.55,0.42
103.49,0.42
103.43,0.42
103.36,0.42
103.30,0.42
103.24,0.42
103.17,0.42
103.11,0.42
103.05,0.42
102.98,0.42
102.92,0.42
102.85,0.42
102.79,0.42
102.73,0.42
102.67,0.42
102.61,0.42
102.54,0.42
102.48,0.43
102.41,0.43
102.35,0.43
102.28,0.43
102.22,0.43
102.16,0.43
102.10,0.43
102.03,0.43
101.97,0.43
101.91,0.43
101.84,0.43
101.78,0.43
101.71,0.43
101.65,0.43
101.59,0.43
101.53,0.43
101.46,0.43
101.40,0.43
101.34,0.43
101.27,0.43
101.21,0.43
101.14,0.43
101.08,0.43
101.02,0.43
100.95,0.43
100.89,0.43
100.83,0.43
100.76,0.43
100.70,0.43
100.64,0.43
100.57,0.43
100.51,0.43
100.45,0.43
100.38,0.43
100.32,0.43
100.26,0.43
100.19,0.43
100.14,0.43
100.07,0.43
100.00,0.43
99.94,0.43
99.88,0.43
99.81,0.43
99.75,0.43
99.69,0.43
99.62,0.43
99.56,0.43
99.50,0.43
99.43,0.43
99.37,0.43
99.30,0.43
99.24,0.43
99.18,0.43
99.12,0.43
99.06,0.43
99.00,0.43
98.93,0.43
98.86,0.43
98.80,0.43
98.74,0.43
98.68,0.43
98.61,0.43
98.55,0.43
98.48,0.43
98.43,0.43
98.36,0.43
98.30,0.43
98.23,0.43
98.17,0.43
98.10,0.43
98.04,0.43
97.98,0.43
97.91,0.43
97.85,0.43
97.79,0.43
97.73,0.43
97.66,0.43
97.60,0.43
97.53,0.43
97.47,0.43
97.41,0.43
97.34,0.43
97.29,0.43
97.22,0.43
97.16,0.43
97.09,0.43
97.03,0.43
96.97,0.43
96.90,0.43
96.84,0.43
96.78,0.43
96.71,0.43
96.65,0.43
96.59,0.43
96.53,0.43
96.46,0.43
96.40,0.43
96.34,0.43
96.27,0.43
96.21,0.43
96.14,0.43
96.09,0.43
96.02,0.43
95.96,0.43
95.90,0.43
95.83,0.43
95.77,0.43
95.70,0.43
95.64,0.43
95.58,0.43
95.51,0.43
95.45,0.43
95.39,0.43
95.33,0.43
95.26,0.43
95.20,0.44
95.13,0.44
95.07,0.44
95.01,0.44
94.94,0.44
94.88,0.44
94.82,0.44
94.76,0.44
94.69,0.44
94.63,0.44
94.57,0.44
94.51,0.44
94.44,0.44
94.38,0.44
94.32,0.44
94.25,0.44
94.19,0.44
94.13,0.44
94.07,0.44
94.00,0.44
93.94,0.44
93.88,0.44
93.81,0.44
93.74,0.44
93.68,0.44
93.62,0.44
93.55,0.44
93.49,0.44
93.42,0.44
93.36,0.44
93.30,0.44
93.24,0.44
93.17,0.44
93.11,0.44
93.05,0.44
92.98,0.44
92.92,0.44
92.86,0.44
92.80,0.44
92.73,0.44
92.67,0.44
92.60,0.44
92.55,0.44
92.48,0.44
92.42,0.44
92.35,0.44
92.29,0.44
92.23,0.44
92.17,0.44
92.10,0.44
92.04,0.44
91.97,0.44
91.90,0.44
91.84,0.44
91.78,0.44
91.72,0.44
91.65,0.44
91.59,0.44
91.53,0.44
91.46,0.44
91.40,0.44
91.33,0.44
91.27,0.44
91.20,0.44
91.14,0.44
91.08,0.44
91.02,0.44
90.96,0.44
90.89,0.44
90.83,0.44
90.77,0.44
90.71,0.44
90.64,0.44
90.58,0.44
90.52,0.44
90.46,0.44
90.39,0.44
90.32,0.44
90.26,0.44
90.20,0.44
90.13,0.44
90.07,0.44
90.01,0.44
89.94,0.44
89.88,0.44
89.82,0.44
89.75,0.44
89.69,0.44
89.63,0.44
89.57,0.44
89.50,0.44
89.44,0.44
89.37,0.44
89.31,0.44
89.25,0.44
89.19,0.44
89.12,0.44
89.06,0.44
88.99,0.44
88.93,0.44
88.87,0.44
88.81,0.44
88.74,0.44
88.68,0.44
88.62,0.44
88.56,0.44
88.49,0.44
88.43,0.44
88.37,0.44
88.30,0.44
88.23,0.44
88.17,0.44
88.10,0.44
88.04,0.44
87.98,0.44
87.92,0.44
87.86,0.44
87.80,0.44
87.73,0.44
87.67,0.44
87.60,0.44
87.54,0.44
87.48,0.44
87.41,0.44
87.35,0.44
87.29,0.44
87.22,0.44
87.16,0.44
87.10,0.44
87.04,0.44
86.98,0.44
86.91,0.44
86.85,0.44
86.78,0.44
86.72,0.45
86.66,0.45
86.60,0.45
86.53,0.45
86.47,0.45
86.40,0.45
86.34,0.45
86.28,0.45
86.22,0.45
86.15,0.45
86.09,0.45
86.03,0.45
85.96,0.45
85.90,0.45
85.84,0.45
85.77,0.45
85.70,0.45
85.65,0.45
85.58,0.45
85.52,0.45
85.45,0.45
85.39,0.45
85.33,0.45
85.26,0.45
85.20,0.45
85.14,0.45
85.08,0.45
85.01,0.45
84.95,0.45
84.89,0.45
84.82,0.45
84.76,0.45
84.70,0.45
84.64,0.45
84.58,0.45
84.53,0.45
84.48,0.44
84.44,0.43
84.41,0.43
84.38,0.42
84.36,0.41
84.34,0.40
84.32,0.40
84.31,0.39
84.30,0.39
84.29,0.38
84.28,0.38
84.28,0.38
84.28,0.37
84.26,0.37
84.26,0.37
84.26,0.37
84.26,0.37
84.25,0.37
84.26,0.37
84.26,0.37
84.25,0.37
84.25,0.37
84.25,0.37
84.25,0.37
84.25,0.37
84.25,0.37
84.24,0.37
84.24,0.36
84.24,0.37
84.25,0.37
84.25,0.37
84.25,0.37
84.25,0.37
84.25,0.37
84.25,0.37
84.25,0.37
84.25,0.37
84.24,0.37
84.24,0.37
84.24,0.37
84.24,0.37
84.25,0.37
84.24,0.37
84.25,0.37
84.25,0.37
84.25,0.37
84.25,0.37
84.25,0.37
84.25,0.37
84.25,0.37
84.25,0.37
84.24,0.37
84.25,0.37
84.25,0.37
84.25,0.37
84.25,0.37
84.25,0.37
84.25,0.37
84.24,0.37
84.24,0.37
84.25,0.37
84.25,0.37
84.25,0.37
84.25,0.37
84.24,0.37
84.25,0.37
84.24,0.37
84.24,0.37
84.24,0.37
84.24,0.37
84.24,0.37
84.24,0.37
84.24,0.37
84.23,0.37
84.24,0.37
84.24,0.37
84.24,0.37
84.24,0.37
84.24,0.37
84.24,0.37
84.24,0.37
84.24,0.37
84.24,0.37
84.24,0.37
84.24,0.37
84.24,0.37
84.23,0.37
84.24,0.37
84.23,0.37
84.24,0.37
84.24,0.37
84.24,0.37
84.24,0.37
84.23,0.37
84.24,0.37
84.24,0.37
84.24,0.37
84.24,0.37
84.24,0.37
84.24,0.37
84.24,0.37
84.24,0.37
84.24,0.37
84.24,0.37
84.24,0.37
84.24,0.37
84.24,0.37
84.24,0.37
84.24,0.37
84.24,0.37
84.24,0.37
84.24,0.37
84.24,0.37
84.24,0.37
84.24,0.37
84.24,0.37
84.24,0.37
84.24,0.37
84.23,0.37
84.24,0.37
84.24,0.37
84.24,0.37
84.23,0.37
84.23,0.37
84.23,0.37
84.24,0.37
84.24,0.37
84.24,0.37
84.24,0.37
84.23,0.37
84.24,0.37
84.23,0.37
84.23,0.37
84.23,0.37
84.24,0.37
84.24,0.37
84.24,0.37
84.23,0.37
84.23,0.37
84.24,0.37
84.24,0.37
84.24,0.37
84.23,0.37
84.23,0.37
84.23,0.37
84.23,0.37
84.23,0.37
84.23,0.37
84.23,0.37
84.23,0.37
84.24,0.37
84.24,0.37
84.24,0.37
84.23,0.37
84.23,0.37
84.23,0.37
84.23,0.37
84.22,0.37
84.22,0.37
84.23,0.37
84.23,0.37
84.23,0.37
84.23,0.37
84.24,0.37
84.23,0.37
84.23,0.37
84.23,0.37
84.23,0.37
84.23,0.37
84.23,0.37
84.24,0.37
84.23,0.37
84.23,0.37
84.23,0.37
84.24,0.37
84.23,0.37
84.23,0.37
84.23,0.37
84.23,0.37
84.23,0.37
84.23,0.37
84.23,0.37
84.23,0.37
84.23,0.37
84.23,0.37
84.23,0.37
84.23,0.37
84.23,0.37
84.23,0.37
84.23,0.37
84.23,0.37
84.23,0.37
84.23,0.37
84.23,0.37
84.23,0.37
84.23,0.37
84.23,0.37
84.23,0.37
84.23,0.37
84.23,0.37
84.23,0.37
84.23,0.37
84.23,0.37
84.23,0.37
84.23,0.37
84.22,0.37
84.22,0.37
84.23,0.37
84.22,0.37
84.22,0.37
84.22,0.37
84.22,0.37
84.23,0.37
84.22,0.37
84.22,0.37
84.22,0.37
84.22,0.37
84.23,0.37
84.23,0.37
84.22,0.37
84.22,0.37
84.23,0.37
84.22,0.37
84.22,0.37
84.22,0.37
84.22,0.37
84.22,0.37
84.23,0.37
84.22,0.37
84.23,0.37
84.23,0.37
84.22,0.37
84.23,0.37
84.23,0.37
84.23,0.37
84.22,0.37
84.22,0.37
84.23,0.37
84.26,0.37
84.32,0.36
84.42,0.34
84.53,0.30
84.68,0.27
84.86,0.23
85.06,0.19
85.28,0.15
85.51,0.12
85.76,0.09
86.02,0.07
86.29,0.05
86.58,0.03
86.86,0.02
87.15,0.00
87.45,-0.01
87.75,-0.01
88.05,-0.02
88.36,-0.02
88.67,-0.03
88.98,-0.03
89.30,-0.03
89.61,-0.03
89.92,-0.04
90.23,-0.04
90.55,-0.04
90.87,-0.04
91.19,-0.04
91.50,-0.04
91.82,-0.04
92.14,-0.04
92.45,-0.03
92.78,-0.03
93.09,-0.03
93.41,-0.03
93.73,-0.03
94.05,-0.02
94.36,-0.02
94.68,-0.02
94.99,-0.02
95.32,-0.02
95.64,-0.02
95.95,-0.02
96.27,-0.02
96.58,-0.01
96.91,-0.01
97.22,-0.01
97.54,-0.01
97.86,-0.01
98.17,-0.01
98.49,-0.01
98.81,-0.01
99.13,-0.01
99.44,-0.01
99.76,-0.01
100.08,-0.01
100.40,-0.01
100.71,-0.01
101.03,-0.01
101.35,-0.01
101.67,-0.01
101.98,-0.01
102.30,-0.01
102.62,-0.01
102.94,-0.00
103.26,-0.00
103.57,-0.00
103.89,-0.00
104.20,-0.00
104.52,-0.00
104.83,-0.00
105.15,-0.00
105.47,-0.00
105.78,-0.00
106.10,-0.00
106.42,-0.00
106.74,-0.00
107.05,-0.00
107.37,-0.00
107.68,-0.00
108.00,-0.00
108.31,-0.00
108.63,-0.00
108.95,-0.00
109.26,-0.00
109.58,-0.00
109.90,-0.01
110.21,-0.01
110.53,-0.01
110.85,-0.01
111.17,-0.01
111.48,-0.01
111.80,-0.01
112.11,-0.01
112.44,-0.01
112.75,-0.01
113.07,-0.01
113.38,-0.01
113.70,-0.01
114.02,-0.01
114.33,-0.01
114.64,-0.01
114.96,-0.01
115.28,-0.01
115.59,-0.01
115.91,-0.01
116.22,-0.01
116.54,-0.01
116.85,-0.01
117.17,-0.01
117.48,-0.01
117.80,-0.01
118.11,-0.01
118.43,-0.01
118.74,-0.01
119.06,-0.01
119.38,-0.01
119.70,-0.01
120.01,-0.01
120.33,-0.01
120.65,-0.01
120.96,-0.01
121.28,-0.01
121.60,-0.01
121.91,-0.01
122.23,-0.01
122.55,-0.01
122.87,-0.01
123.18,-0.01
123.50,-0.01
123.81,-0.01
124.13,-0.01
124.45,-0.01
124.76,-0.01
125.08,-0.01
125.39,-0.01
125.72,-0.01
126.03,-0.01
126.35,-0.01
126.66,-0.01
126.98,-0.01
127.29,-0.01
127.62,-0.01
127.93,-0.01
128.24,-0.01
128.56,-0.01
128.88,-0.01
129.19,-0.01
129.51,-0.00
129.83,-0.00
130.15,-0.00
130.47,-0.00
130.78,-0.00
131.10,-0.00
131.42,-0.00
131.73,-0.00
132.05,-0.00
132.37,-0.00
132.68,-0.00
132.99,-0.00
133.31,-0.00
133.63,-0.00
133.95,-0.00
134.27,-0.00
134.58,-0.00
134.89,-0.00
135.21,-0.00
135.54,-0.00
135.85,-0.00
136.17,-0.00
136.48,-0.00
136.80,-0.01
137.11,-0.01
137.43,-0.01
137.75,-0.01
138.06,-0.01
138.38,-0.01
138.69,-0.01
139.01,-0.01
139.33,-0.01
139.65,-0.01
139.96,-0.01
140.28,-0.01
140.60,-0.01
140.91,-0.01
141.23,-0.01
141.54,-0.01
141.86,-0.01
142.18,-0.01
142.50,-0.01
142.81,-0.01
143.13,-0.01
143.45,-0.01
143.76,-0.01
144.08,-0.01
144.39,-0.01
144.71,-0.01
145.03,-0.01
145.35,-0.01
145.67,-0.01
145.99,-0.01
146.30,-0.01
146.62,-0.01
146.93,-0.01
147.25,-0.01
147.56,-0.01
147.88,-0.01
148.20,-0.01
148.51,-0.01
148.84,-0.01
149.14,-0.01
149.46,-0.01
149.77,-0.01
150.09,-0.01
150.41,-0.01
150.73,-0.01
151.05,-0.01
151.37,-0.01
151.69,-0.01
152.00,-0.01
152.32,-0.01
152.63,-0.01
152.96,-0.01
153.28,-0.01
153.59,-0.01
153.91,-0.01
154.23,-0.01
154.55,-0.01
154.87,-0.01
155.18,-0.01
155.50,-0.01
155.81,-0.03
156.10,-0.15
156.36,-0.57
156.60,-1.39
156.85,-2.42
157.13,-3.39
157.48,-3.87
157.88,-3.56
158.25,-2.70
158.60,-1.87
158.94,-1.28
159.28,-0.87
159.61,-0.60
159.94,-0.41
160.26,-0.28
160.58,-0.19
160.90,-0.14
161.22,-0.10
161.55,-0.07
161.86,-0.05
162.18,-0.04
162.50,-0.03
162.82,-0.02
163.14,-0.02
163.46,-0.02
163.78,-0.01
164.10,-0.01
164.42,-0.01
164.74,-0.01
165.06,-0.01
165.37,-0.01
165.69,-0.01
166.01,-0.01
166.33,-0.01
166.65,-0.00
166.97,-0.00
167.28,-0.00
167.60,-0.00
167.92,-0.00
168.24,-0.00
168.56,-0.00
168.88,-0.00
169.20,-0.00
169.52,-0.00
169.83,-0.00
170.15,-0.00
170.46,-0.00
170.79,-0.00
171.11,-0.00
171.43,-0.00
171.74,-0.00
172.07,-0.00
172.39,-0.00
172.70,0.00
173.02,-0.00
173.34,-0.00
173.66,-0.00
173.97,-0.00
174.30,-0.00
174.62,-0.00
174.94,-0.00
175.26,-0.00
175.58,-0.00
175.90,0.00
176.22,0.00
176.54,0.00
176.86,0.00
177.18,0.00
177.50,0.00
177.82,0.00
178.13,0.00
178.46,0.00
178.77,0.00
179.10,0.00
179.42,0.00
179.73,0.00
180.02,0.01
180.26,0.02
180.48,0.05
180.66,0.09
180.81,0.13
180.94,0.18
181.04,0.21
181.12,0.25
181.19,0.28
181.25,0.31
181.31,0.33
181.33,0.35
181.36,0.36
181.39,0.37
181.41,0.38
181.42,0.39
181.44,0.39
181.45,0.40
181.46,0.40
181.47,0.40
181.47,0.40
181.48,0.40
181.48,0.40
181.49,0.40
181.49,0.40
181.49,0.40
181.50,0.40
181.49,0.40
181.50,0.40
181.50,0.40
181.50,0.39
181.50,0.39
181.50,0.39
181.51,0.39
181.51,0.39
181.51,0.39
181.51,0.39
181.51,0.38
181.51,0.38
181.51,0.38
181.52,0.38
181.51,0.38
181.52,0.38
181.51,0.38
181.52,0.38
181.51,0.38
181.52,0.38
181.52,0.38
181.52,0.38
181.52,0.38
181.52,0.38
181.53,0.38
181.52,0.38
181.53,0.38
181.53,0.38
181.53,0.38
181.53,0.38
181.53,0.38
181.53,0.38
181.52,0.38
181.48,0.38
181.41,0.40
181.30,0.42
181.17,0.46
181.00,0.50
180.80,0.55
180.59,0.59
180.35,0.62
180.10,0.65
179.84,0.68
179.57,0.70
179.28,0.72
178.99,0.73
178.70,0.74
178.40,0.75
178.09,0.76
177.79,0.76
177.48,0.77
177.17,0.77
176.86,0.77
176.54,0.77
176.23,0.77
175.92,0.77
175.60,0.77
175.29,0.77
174.97,0.77
174.65,0.77
174.33,0.77
174.02,0.76
173.70,0.76
173.38,0.76
173.07,0.76
172.74,0.76
172.43,0.76
172.11,0.76
171.80,0.76
171.48,0.75
171.16,0.75
170.84,0.75
170.52,0.75
170.21,0.75
169.89,0.75
169.58,0.75
169.26,0.75
168.94,0.75
168.62,0.75
168.30,0.74
167.99,0.74
167.67,0.74
167.36,0.75
167.04,0.75
166.72,0.74
166.40,0.74
166.09,0.74
165.77,0.74
165.46,0.74
165.13,0.74
164.82,0.74
164.50,0.74
164.19,0.74
163.86,0.74
163.55,0.74
163.23,0.74
162.91,0.74
162.59,0.74
162.28,0.74
161.96,0.74
161.65,0.74
161.33,0.74
161.01,0.74
160.69,0.74
160.38,0.74
160.06,0.73
159.74,0.73
159.43,0.73
159.11,0.73
158.79,0.73
158.48,0.73
158.16,0.73
157.85,0.73
157.53,0.73
157.21,0.73
156.90,0.73
156.59,0.73
156.27,0.73
155.95,0.73
155.64,0.73
155.32,0.73
155.00,0.73
154.69,0.73
154.38,0.73
154.06,0.73
153.75,0.73
153.43,0.73
153.15,0.80
153.08,1.89
152.85,4.05
152.46,5.56
152.05,5.13
151.68,3.90
151.31,2.90
150.97,2.21
150.63,1.74
150.30,1.42
149.97,1.20
149.65,1.05
149.33,0.95
149.02,0.88
148.70,0.83
148.38,0.80
148.06,0.77
147.75,0.76
147.43,0.75
147.12,0.74
146.81,0.74
146.49,0.73
146.17,0.73
145.86,0.73
145.55,0.73
145.23,0.72
144.92,0.72
144.61,0.72
144.29,0.72
143.97,0.72
143.66,0.72
143.34,0.72
143.03,0.72
142.71,0.72
142.40,0.72
142.08,0.72
141.77,0.72
141.46,0.72
141.14,0.72
140.82,0.72
140.50,0.72
140.19,0.72
139.87,0.72
139.56,0.72
139.24,0.72
138.93,0.72
138.62,0.72
138.30,0.72
137.99,0.72
137.67,0.72
137.36,0.72
137.04,0.72
136.74,0.72
136.42,0.72
136.10,0.72
135.79,0.72
135.48,0.72
135.16,0.72
134.85,0.72
134.54,0.72
134.21,0.72
133.90,0.72
133.59,0.72
133.27,0.72
132.96,0.72
132.64,0.72
132.33,0.72
132.02,0.72
131.70,0.72
131.38,0.72
131.07,0.72
130.75,0.72
130.44,0.71
130.12,0.71
129.81,0.71
129.49,0.71
129.18,0.71
128.86,0.71
128.54,0.71
128.23,0.71
127.91,0.71
127.60,0.71
127.28,0.71
126.97,0.71
126.66,0.71
126.34,0.71
126.03,0.71
125.71,0.71
125.40,0.71
125.08,0.71
124.77,0.71
124.45,0.70
124.14,0.70
123.82,0.71
123.51,0.71
123.19,0.71
122.88,0.71
122.56,0.71
122.25,0.71
121.93,0.71
121.61,0.71
121.30,0.71
120.98,0.71
120.66,0.71
120.35,0.71
120.04,0.71
119.72,0.71
119.40,0.71
119.09,0.71
118.77,0.71
118.46,0.71
118.14,0.71
117.83,0.71
117.52,0.71
117.21,0.71
116.89,0.71
116.58,0.71
116.26,0.71
115.95,0.71
115.64,0.71
115.32,0.71
115.01,0.71
114.69,0.71
114.38,0.71
114.06,0.71
113.75,0.71
113.43,0.71
113.12,0.71
112.81,0.71
112.49,0.71
112.18,0.71
111.86,0.71
111.55,0.71
111.23,0.71
110.91,0.71
110.60,0.71
110.29,0.71
109.97,0.71
109.66,0.71
109.34,0.71
109.02,0.71
108.71,0.71
108.39,0.71
108.08,0.71
107.76,0.71
107.45,0.71
107.14,0.71
106.82,0.71
106.50,0.71
106.19,0.72
105.87,0.72
105.56,0.72
105.25,0.72
104.93,0.72
104.61,0.72
104.30,0.72
103.98,0.72
103.67,0.72
103.35,0.72
103.04,0.72
102.72,0.72
102.41,0.72
102.09,0.72
101.77,0.72
101.46,0.72
101.14,0.72
100.82,0.72
100.51,0.72
100.19,0.73
99.87,0.73
99.56,0.73
99.24,0.73
98.93,0.73
98.61,0.73
98.30,0.73
97.98,0.73
97.67,0.73
97.35,0.73
97.03,0.73
96.72,0.73
96.41,0.73
96.09,0.73
95.77,0.73
95.45,0.73
95.14,0.74
94.83,0.74
94.51,0.74
94.19,0.74
93.88,0.74
93.56,0.74
93.25,0.74
92.93,0.74
92.61,0.74
92.30,0.74
91.98,0.74
91.67,0.74
91.35,0.74
91.03,0.74
90.71,0.74
90.40,0.74
90.09,0.75
89.77,0.75
89.45,0.75
89.14,0.75
88.82,0.75
88.50,0.75
88.19,0.75
87.87,0.75
87.56,0.75
87.24,0.75
86.93,0.75
86.61,0.75
86.30,0.75
85.98,0.75
85.67,0.76
85.35,0.76
85.04,0.76
84.72,0.76
84.40,0.76
84.09,0.76
83.77,0.76
83.45,0.76
83.14,0.76
82.82,0.76
82.50,0.76
82.19,0.76
81.88,0.77
81.55,0.77
81.24,0.77
80.93,0.77
80.61,0.77
80.29,0.77
79.98,0.77
79.66,0.77
79.35,0.77
79.03,0.77
78.71,0.77
78.40,0.77
78.08,0.77
77.77,0.77
77.45,0.77
77.13,0.77
76.81,0.77
76.50,0.77
76.18,0.77
75.87,0.77
75.55,0.77
75.23,0.77
74.92,0.77
74.60,0.77
74.29,0.77
73.97,0.77
73.66,0.77
73.34,0.77
73.02,0.77
72.71,0.77
72.38,0.77
72.07,0.78
71.76,0.78
71.44,0.77
71.12,0.77
70.81,0.77
70.49,0.78
70.18,0.78
69.86,0.78
69.55,0.78
69.23,0.78
68.91,0.78
68.60,0.78
68.28,0.78
67.96,0.78
67.65,0.78
67.34,0.78
67.02,0.78
66.70,0.78
66.39,0.78
66.07,0.78
65.76,0.78
65.44,0.78
65.13,0.78
64.81,0.78
64.50,0.79
64.18,0.79
63.86,0.79
63.54,0.79
63.23,0.79
62.92,0.79
62.60,0.79
62.28,0.79
61.96,0.79
61.66,0.79
61.33,0.79
61.02,0.79
60.70,0.79
60.39,0.80
60.06,0.80
59.75,0.80
59.44,0.80
59.12,0.80
58.80,0.80
58.49,0.80
58.18,0.80
57.85,0.80
57.54,0.80
57.22,0.80
56.90,0.80
56.59,0.80
56.27,0.80
55.96,0.80
55.63,0.81
55.32,0.81
55.01,0.81
54.70,0.81
54.37,0.81
54.06,0.81
53.74,0.81
53.42,0.81
53.11,0.81
52.79,0.81
52.48,0.82
52.16,0.82
51.85,0.82
51.53,0.82
51.21,0.82
50.90,0.82
50.58,0.82
50.27,0.82
49.95,0.82
49.64,0.82
49.32,0.82
49.01,0.82
48.69,0.82
48.38,0.83
48.06,0.83
47.74,0.83
47.43,0.83
47.11,0.83
46.79,0.83
46.47,0.83
46.16,0.83
45.84,0.83
45.53,0.83
45.21,0.83
44.89,0.83
44.57,0.84
44.25,0.84
43.94,0.84
43.62,0.84
43.31,0.84
42.99,0.84
42.67,0.84
42.36,0.84
42.05,0.84
41.73,0.84
41.41,0.84
41.10,0.84
40.78,0.84
40.47,0.84
40.15,0.85
39.84,0.85
39.52,0.85
39.21,0.85
38.90,0.85
38.58,0.85
38.26,0.85
37.95,0.85
37.63,0.85
37.32,0.85
37.00,0.86
36.68,0.86
36.38,0.86
36.05,0.86
35.73,0.86
35.41,0.86
35.09,0.86
34.78,0.86
34.46,0.86
34.15,0.86
33.84,0.86
33.52,0.86
33.20,0.86
32.89,0.87
32.57,0.87
32.26,0.87
31.94,0.87
31.63,0.87
31.31,0.87
31.00,0.87
30.68,0.87
30.37,0.87
30.07,0.87
29.74,0.87
29.42,0.87
29.11,0.88
28.80,0.88
28.48,0.88
28.17,0.88
27.86,0.88
27.54,0.88
27.23,0.88
26.91,0.88
26.60,0.88
26.28,0.88
25.96,0.88
25.65,0.88
25.33,0.88
25.02,0.88
24.71,0.88
24.40,0.89
24.08,0.89
23.77,0.89
23.45,0.89
23.15,0.89
22.83,0.89
22.52,0.89
22.21,0.89
21.90,0.89
21.59,0.89
21.28,0.89
20.97,0.89
20.66,0.89
20.35,0.89
20.04,0.89
19.74,0.89
19.44,0.89
19.13,0.89
18.83,0.89
18.53,0.89
18.23,0.89
17.94,0.89
17.65,0.89
17.35,0.88
17.07,0.88
16.78,0.